1                    ***** LOWTRAN 7 *****
0 CARD 1  *****    6    2    0    0    0    0    0    0    0    0    0    0    0    .000    .00
0 CARD 2  *****    1    0    8    0    0    0      .000      .000      .000      .000      .000
0 CARD 3  *****    30.000    30.000    94.466      .000      .000      .000    0
0 CARD 4  *****   990.000  1090.000     5.000
0 PROGRAM WILL COMPUTE TRANSMITTANCE
0 ATMOSPHERIC MODEL
          TEMPERATURE =    6     1976 U S STANDARD
          WATER VAPOR =    6     1976 U S STANDARD
          OZONE       =    6     1976 U S STANDARD
                      M4 =     6 M5 =     6 M6 =     6 MDEF =     1
0 AEROSOL MODEL
          REGIME                  AEROSOL TYPE             PROFILE                  SEASON

          BOUNDARY LAYER (0-2 KM) RURAL                     23.0 KM VIS AT SEA LEVEL
          TROPOSPHERE  (2-10KM)   TROPOSPHERIC             TROPOSPHERIC             SPRING-SUMMER
          STRATOSPHERE (10-30KM)  FRESH VOLCANIC           EXTREME  VOLCANIC        SPRING-SUMMER
          UPPER ATMOS (30-100KM)  METEORIC DUST            TRANSITION
0 SLANT PATH, H1 TO H2
          H1    =     30.000 KM
          H2    =     30.000 KM
          ANGLE =     94.466 DEG
          RANGE =       .000 KM
          BETA  =       .000 DEG
          LEN   =      0
0 FREQUENCY RANGE
           V1 =        990.0 CM-1  (     10.10 MICROMETERS)
           V2 =       1090.0 CM-1  (      9.17 MICROMETERS)
           DV =          5.0 CM-1
1
  ATMOSPHERIC PROFILES

   I     Z       P       T        N2       CNTMSLF MOL SCAT     N-1     O3 (UV)  O2 (UV)
        (KM)    (MB)    (K)            (MOL/CM2 KM)   (-)       (-)  (ATM CM/KM) (ATM CM/KM)

   1      .00 1013.000  288.2  7.203E-01 1.566E+20 9.475E-01 2.722E-04 2.519E-03 3.535E+04
   2     1.00  898.800  281.7  5.868E-01 7.926E+19 8.601E-01 2.471E-04 2.519E-03 3.079E+04
   3     2.00  795.000  275.2  4.754E-01 3.781E+19 7.788E-01 2.238E-04 2.519E-03 2.678E+04
   4     3.00  701.200  268.7  3.834E-01 1.457E+19 7.035E-01 2.022E-04 2.333E-03 2.327E+04
   5     4.00  616.600  262.2  3.075E-01 5.440E+18 6.340E-01 1.823E-04 2.146E-03 2.021E+04
   6     5.00  540.500  255.7  2.454E-01 1.842E+18 5.698E-01 1.639E-04 2.146E-03 1.753E+04
   7     6.00  472.200  249.2  1.946E-01 6.495E+17 5.108E-01 1.469E-04 2.099E-03 1.519E+04
   8     7.00  411.100  242.7  1.535E-01 1.983E+17 4.566E-01 1.313E-04 2.286E-03 1.315E+04
   9     8.00  356.500  236.2  1.202E-01 6.471E+16 4.069E-01 1.170E-04 2.426E-03 1.137E+04
  10     9.00  308.000  229.7  9.358E-02 9.518E+15 3.615E-01 1.040E-04 3.312E-03 9.815E+03
  11    10.00  265.000  223.3  7.227E-02 1.456E+15 3.199E-01 9.201E-05 4.198E-03 8.456E+03
  12    11.00  227.000  216.8  5.543E-02 3.023E+14 2.823E-01 8.118E-05 6.062E-03 7.276E+03
  13    12.00  194.000  216.7  4.052E-02 6.151E+13 2.413E-01 6.941E-05 7.464E-03 6.050E+03
  14    13.00  165.800  216.7  2.959E-02 1.456E+13 2.063E-01 5.932E-05 7.927E-03 5.045E+03
  15    14.00  141.700  216.7  2.162E-02 3.173E+12 1.763E-01 5.070E-05 8.861E-03 4.220E+03
  16    15.00  121.100  216.7  1.579E-02 1.649E+12 1.507E-01 4.333E-05 9.793E-03 3.540E+03
  17    16.00  103.500  216.7  1.153E-02 7.519E+11 1.288E-01 3.703E-05 1.120E-02 2.977E+03
  18    17.00   88.500  216.7  8.432E-03 5.223E+11 1.101E-01 3.166E-05 1.306E-02 2.510E+03
  19    18.00   75.650  216.7  6.161E-03 3.767E+11 9.411E-02 2.707E-05 1.493E-02 2.119E+03
  20    19.00   64.670  216.7  4.502E-03 2.789E+11 8.045E-02 2.314E-05 1.632E-02 1.792E+03
  21    20.00   55.290  216.7  3.291E-03 2.092E+11 6.878E-02 1.978E-05 1.773E-02 1.519E+03
  22    21.00   47.290  217.6  2.393E-03 1.576E+11 5.859E-02 1.685E-05 1.773E-02 1.283E+03
  23    22.00   40.470  218.6  1.740E-03 1.196E+11 4.991E-02 1.435E-05 1.819E-02 1.086E+03
  24    23.00   34.670  219.6  1.268E-03 9.288E+10 4.256E-02 1.224E-05 1.773E-02 9.203E+02
  25    24.00   29.720  220.6  9.258E-04 7.090E+10 3.632E-02 1.045E-05 1.679E-02 7.814E+02
  26    25.00   25.490  221.6  6.764E-04 5.473E+10 3.101E-02 8.918E-06 1.586E-02 6.643E+02
  27    30.00   11.970  226.5  1.443E-04 1.317E+10 1.425E-02 4.097E-06 9.330E-03 3.011E+02
  28    35.00    5.746  236.5  3.117E-05 2.994E+09 6.550E-03 1.884E-06 5.130E-03 1.375E+02
  29    40.00    2.871  250.4  7.144E-06 7.012E+08 3.091E-03 8.889E-07 2.255E-03 6.472E+01
  30    45.00    1.491  264.2  1.778E-06 1.837E+08 1.521E-03 4.375E-07 7.982E-04 3.182E+01
  31    50.00     .798  270.7  4.908E-07 5.009E+07 7.945E-04 2.285E-07 2.461E-04 1.660E+01
  32    70.00     .052  219.6  2.875E-09 1.462E+05 6.408E-05 1.843E-08 1.921E-06 1.338E+00
  33   100.00     .000  195.1  1.290E-13 9.093E-02 4.422E-07 1.272E-10 1.767E-08 7.070E-03
1
  ATMOSPHERIC PROFILES

   I     Z       P       T      CNTMFRN     HNO3    AEROSOL 1 AEROSOL 2 AEROSOL 3 AEROSOL 4 AER1*RH   CIRRUS         RH
        (KM)    (MB)    (K)   MOL/CM2 KM ATM CM/KM   (-)       (-)       (-)       (-)       (-)       (-)      (PERCNT)

   1      .00 1013.000  288.2  2.007E+22 4.738E-06 1.580E-01 0.000E+00 0.000E+00 0.000E+00 6.307E-01 0.000E+00 4.584E+01
   2     1.00  898.800  281.7  1.299E+22 5.126E-06 9.910E-02 0.000E+00 0.000E+00 0.000E+00 3.897E-01 0.000E+00 4.898E+01
   3     2.00  795.000  275.2  8.133E+21 5.397E-06 6.210E-02 0.000E+00 0.000E+00 0.000E+00 2.405E-01 0.000E+00 5.194E+01
   4     3.00  701.200  268.7  4.567E+21 5.565E-06 0.000E+00 3.460E-02 0.000E+00 0.000E+00 0.000E+00 0.000E+00 5.071E+01
   5     4.00  616.600  262.2  2.518E+21 5.623E-06 0.000E+00 1.850E-02 0.000E+00 0.000E+00 0.000E+00 0.000E+00 5.004E+01
   6     5.00  540.500  255.7  1.318E+21 5.556E-06 0.000E+00 9.310E-03 0.000E+00 0.000E+00 0.000E+00 0.000E+00 4.836E+01
   7     6.00  472.200  249.2  7.018E+20 5.670E-06 0.000E+00 7.710E-03 0.000E+00 0.000E+00 0.000E+00 0.000E+00 4.918E+01
   8     7.00  411.100  242.7  3.468E+20 5.754E-06 0.000E+00 6.230E-03 0.000E+00 0.000E+00 0.000E+00 0.000E+00 4.814E+01
   9     8.00  356.500  236.2  1.765E+20 5.656E-06 0.000E+00 3.370E-03 0.000E+00 0.000E+00 0.000E+00 0.000E+00 5.054E+01
  10     9.00  308.000  229.7  6.016E+19 5.531E-06 0.000E+00 1.820E-03 0.000E+00 0.000E+00 0.000E+00 0.000E+00 3.708E+01
  11    10.00  265.000  223.3  2.083E+19 5.567E-06 0.000E+00 1.140E-03 0.000E+00 0.000E+00 0.000E+00 0.000E+00 2.869E+01
  12    11.00  227.000  216.8  8.374E+18 5.702E-06 0.000E+00 0.000E+00 2.120E-03 0.000E+00 0.000E+00 0.000E+00 2.743E+01
  13    12.00  194.000  216.7  3.230E+18 5.816E-06 0.000E+00 0.000E+00 2.450E-03 0.000E+00 0.000E+00 0.000E+00 1.252E+01
  14    13.00  165.800  216.7  1.343E+18 5.693E-06 0.000E+00 0.000E+00 2.800E-03 0.000E+00 0.000E+00 0.000E+00 6.092E+00
  15    14.00  141.700  216.7  5.358E+17 5.870E-06 0.000E+00 0.000E+00 3.600E-03 0.000E+00 0.000E+00 0.000E+00 2.844E+00
  16    15.00  121.100  216.7  3.301E+17 6.809E-06 0.000E+00 0.000E+00 5.230E-03 0.000E+00 0.000E+00 0.000E+00 2.050E+00
  17    16.00  103.500  216.7  1.905E+17 9.489E-06 0.000E+00 0.000E+00 8.110E-03 0.000E+00 0.000E+00 0.000E+00 1.384E+00
  18    17.00   88.500  216.7  1.358E+17 1.442E-05 0.000E+00 0.000E+00 1.270E-02 0.000E+00 0.000E+00 0.000E+00 1.154E+00
  19    18.00   75.650  216.7  9.855E+16 1.986E-05 0.000E+00 0.000E+00 2.320E-02 0.000E+00 0.000E+00 0.000E+00 9.798E-01
  20    19.00   64.670  216.7  7.249E+16 2.550E-05 0.000E+00 0.000E+00 4.850E-02 0.000E+00 0.000E+00 0.000E+00 8.431E-01
  21    20.00   55.290  216.7  5.368E+16 2.889E-05 0.000E+00 0.000E+00 1.000E-01 0.000E+00 0.000E+00 0.000E+00 7.302E-01
  22    21.00   47.290  217.6  3.969E+16 2.894E-05 0.000E+00 0.000E+00 5.500E-02 0.000E+00 0.000E+00 0.000E+00 5.702E-01
  23    22.00   40.470  218.6  2.946E+16 2.725E-05 0.000E+00 0.000E+00 6.100E-03 0.000E+00 0.000E+00 0.000E+00 4.422E-01
  24    23.00   34.670  219.6  2.213E+16 2.443E-05 0.000E+00 0.000E+00 2.400E-03 0.000E+00 0.000E+00 0.000E+00 3.472E-01
  25    24.00   29.720  220.6  1.650E+16 2.121E-05 0.000E+00 0.000E+00 1.280E-03 0.000E+00 0.000E+00 0.000E+00 2.707E-01
  26    25.00   25.490  221.6  1.238E+16 1.740E-05 0.000E+00 0.000E+00 7.760E-04 0.000E+00 0.000E+00 0.000E+00 2.125E-01
  27    30.00   11.970  226.5  2.790E+15 5.328E-06 0.000E+00 0.000E+00 7.600E-05 0.000E+00 0.000E+00 0.000E+00 6.101E-02
  28    35.00    5.746  236.5  6.115E+14 1.074E-06 0.000E+00 0.000E+00 0.000E+00 2.450E-05 0.000E+00 0.000E+00 1.056E-02
  29    40.00    2.871  250.4  1.397E+14 1.647E-07 0.000E+00 0.000E+00 0.000E+00 7.990E-06 0.000E+00 0.000E+00 1.460E-03
  30    45.00    1.491  264.2  3.518E+13 1.841E-08 0.000E+00 0.000E+00 0.000E+00 4.010E-06 0.000E+00 0.000E+00 2.502E-04
  31    50.00     .798  270.7  9.595E+12 4.409E-09 0.000E+00 0.000E+00 0.000E+00 2.100E-06 0.000E+00 0.000E+00 8.159E-05
  32    70.00     .052  219.6  4.181E+10 2.095E-10 0.000E+00 0.000E+00 0.000E+00 1.600E-07 0.000E+00 0.000E+00 4.357E-04
  33   100.00     .000  195.1  2.275E+05 1.207E-12 0.000E+00 0.000E+00 0.000E+00 9.310E-10 0.000E+00 0.000E+00 8.646E-06
1
  ATMOSPHERIC PROFILES

  (IF A MOLECULE HAS MORE THAN ONE BAND, THEN THE DATA FOR THE FIRST BAND ARE SHOWN.)

   I      Z       P       T      H2O      O3       CO2      CO       CH4      N2O      O2       NH3      NO       NO2      SO2
         (KM)    (MB)    (K) G/CM**2/KM  (                      ATM CM/KM                                                     )
   1      .00 1013.000  288.2  5.79E-01 2.34E-03 3.53E+01 1.37E-02 1.65E-01 2.88E-02 1.69E+04 4.97E-05 2.91E-05 2.18E-06 2.66E-05
   2     1.00  898.800  281.7  3.69E-01 2.30E-03 2.81E+01 1.11E-02 1.36E-01 2.55E-02 1.42E+04 4.01E-05 2.46E-05 1.89E-06 2.19E-05
   3     2.00  795.000  275.2  2.28E-01 2.25E-03 2.22E+01 9.01E-03 1.12E-01 2.26E-02 1.19E+04 2.99E-05 2.06E-05 1.63E-06 1.69E-05
   4     3.00  701.200  268.7  1.26E-01 2.04E-03 1.75E+01 7.25E-03 9.13E-02 1.99E-02 9.96E+03 1.96E-05 1.72E-05 1.40E-06 1.22E-05
   5     4.00  616.600  262.2  6.84E-02 1.84E-03 1.37E+01 5.87E-03 7.43E-02 1.75E-02 8.29E+03 1.18E-05 1.44E-05 1.19E-06 8.40E-06
   6     5.00  540.500  255.7  3.53E-02 1.81E-03 1.06E+01 4.82E-03 6.01E-02 1.53E-02 6.87E+03 6.61E-06 1.19E-05 1.02E-06 6.06E-06
   7     6.00  472.200  249.2  1.85E-02 1.73E-03 8.21E+00 3.92E-03 4.84E-02 1.33E-02 5.66E+03 3.72E-06 9.81E-06 8.64E-07 4.43E-06
   8     7.00  411.100  242.7  9.00E-03 1.84E-03 6.30E+00 3.11E-03 3.88E-02 1.16E-02 4.64E+03 1.96E-06 8.05E-06 7.30E-07 3.36E-06
   9     8.00  356.500  236.2  4.51E-03 1.91E-03 4.80E+00 2.41E-03 3.08E-02 1.00E-02 3.79E+03 9.98E-07 6.57E-06 6.14E-07 2.58E-06
  10     9.00  308.000  229.7  1.51E-03 2.56E-03 3.63E+00 1.80E-03 2.43E-02 8.66E-03 3.07E+03 4.47E-07 5.34E-06 5.18E-07 2.07E-06
  11    10.00  265.000  223.3  5.16E-04 3.16E-03 2.72E+00 1.32E-03 1.90E-02 7.40E-03 2.47E+03 1.84E-07 4.31E-06 4.43E-07 1.68E-06
  12    11.00  227.000  216.8  2.04E-04 4.46E-03 2.03E+00 9.53E-04 1.47E-02 6.25E-03 1.98E+03 7.50E-08 3.45E-06 4.04E-07 1.40E-06
  13    12.00  194.000  216.7  7.88E-05 5.14E-03 1.56E+00 6.31E-04 1.12E-02 4.96E-03 1.41E+03 3.27E-08 2.72E-06 3.90E-07 1.10E-06
  14    13.00  165.800  216.7  3.29E-05 5.11E-03 1.20E+00 3.90E-04 8.45E-03 3.94E-03 9.99E+02 1.22E-08 2.13E-06 4.43E-07 8.99E-07
  15    14.00  141.700  216.7  1.32E-05 5.35E-03 9.22E-01 2.33E-04 6.38E-03 3.12E-03 7.08E+02 3.27E-09 1.65E-06 5.98E-07 7.41E-07
  16    15.00  121.100  216.7  8.13E-06 5.54E-03 7.09E-01 1.39E-04 4.81E-03 2.47E-03 5.02E+02 9.91E-10 1.25E-06 1.10E-06 6.16E-07
  17    16.00  103.500  216.7  4.71E-06 5.93E-03 5.46E-01 8.20E-05 3.62E-03 1.94E-03 3.56E+02 3.53E-10 9.30E-07 1.64E-06 5.03E-07
  18    17.00   88.500  216.7  3.36E-06 6.47E-03 4.20E-01 5.05E-05 2.72E-03 1.51E-03 2.53E+02 1.39E-10 6.89E-07 2.15E-06 3.83E-07
  19    18.00   75.650  216.7  2.45E-06 6.93E-03 3.23E-01 3.03E-05 2.04E-03 1.17E-03 1.79E+02 6.36E-11 5.16E-07 2.57E-06 2.79E-07
  20    19.00   64.670  216.7  1.81E-06 7.09E-03 2.49E-01 1.81E-05 1.51E-03 8.92E-04 1.27E+02 2.84E-11 4.13E-07 2.83E-06 1.89E-07
  21    20.00   55.290  216.7  1.34E-06 7.21E-03 1.91E-01 1.18E-05 1.11E-03 6.72E-04 9.03E+01 1.30E-11 3.40E-07 2.99E-06 1.24E-07
  22    21.00   47.290  217.6  9.98E-07 6.71E-03 1.48E-01 8.25E-06 8.09E-04 4.99E-04 6.31E+01 7.82E-12 2.90E-07 3.03E-06 8.39E-08
  23    22.00   40.470  218.6  7.45E-07 6.41E-03 1.15E-01 6.22E-06 5.80E-04 3.73E-04 4.41E+01 5.29E-12 2.53E-07 2.98E-06 5.80E-08
  24    23.00   34.670  219.6  5.63E-07 5.82E-03 8.93E-02 4.99E-06 4.15E-04 2.86E-04 3.09E+01 3.70E-12 2.34E-07 2.85E-06 4.27E-08
  25    24.00   29.720  220.6  4.22E-07 5.13E-03 6.94E-02 4.05E-06 2.99E-04 2.19E-04 2.16E+01 2.54E-12 2.31E-07 2.72E-06 3.18E-08
  26    25.00   25.490  221.6  3.19E-07 4.52E-03 5.40E-02 3.28E-06 2.16E-04 1.64E-04 1.52E+01 1.64E-12 2.77E-07 2.67E-06 2.37E-08
  27    30.00   11.970  226.5  7.39E-08 1.88E-03 1.57E-02 9.54E-07 5.06E-05 4.48E-05 2.66E+00 2.17E-13 3.09E-07 1.50E-06 6.51E-09
  28    35.00    5.746  236.5  1.69E-08 7.14E-04 4.87E-03 2.87E-07 1.15E-05 9.82E-06 4.51E-01 1.65E-14 2.87E-07 6.11E-07 1.98E-09
  29    40.00    2.871  250.4  4.07E-09 2.17E-04 1.64E-03 9.55E-08 2.55E-06 1.64E-06 7.87E-02 7.58E-16 1.51E-07 1.22E-07 8.32E-10
  30    45.00    1.491  264.2  1.08E-09 5.40E-05 5.87E-04 3.57E-08 5.18E-07 2.12E-07 1.52E-02 2.35E-17 5.65E-08 1.32E-08 4.88E-10
  31    50.00     .798  270.7  3.02E-10 1.24E-05 2.13E-04 1.62E-08 1.01E-07 2.55E-08 3.50E-03 1.82E-18 1.89E-08 2.08E-09 3.49E-10
  32    70.00     .052  219.6  1.20E-12 4.12E-08 1.72E-06 1.27E-09 7.61E-10 2.16E-10 2.06E-05 4.89E-21 3.67E-10 2.94E-11 1.98E-11
  33   100.00     .000  195.1  6.67E-18 5.25E-11 1.77E-10 1.10E-11 1.05E-13 7.00E-14 3.65E-10 2.93E-25 2.97E-11 1.98E-14 2.92E-16


 CASE 2A: GIVEN H1, H2, ANGLE



 SLANT PATH PARAMETERS IN STANDARD FORM

          H1      =     30.000 KM
          H2      =     30.000 KM
          ANGLE   =     94.466 DEG
          PHI     =     94.466 DEG
          HMIN    =     10.003 KM
          LEN     =          1
1CALCULATION OF THE REFRACTED PATH THROUGH THE ATMOSPHERE


  I       ALTITUDE        THETA  DRANGE    RANGE    DBETA     BETA     PHI     DBEND  BENDING    PBAR    TBAR   RHOBAR
      FROM       TO
      (KM)      (KM)      (DEG)    (KM)     (KM)    (DEG)    (DEG)    (DEG)    (DEG)    (DEG)    (MB)    (K)  (GM CM-3)

      TANGENT   H1
      HEIGHT

  1   10.003   11.000   90.000  117.081  117.081    1.051    1.051   90.977     .074     .074  252.268  221.18 3.97E-04
  2   11.000   12.000   89.023   48.629  165.710     .436    1.488   91.380     .033     .107  211.433  216.75 3.39E-04
  3   12.000   13.000   88.620   37.290  202.999     .335    1.822   91.693     .022     .129  180.371  216.70 2.89E-04
  4   13.000   14.000   88.307   31.379  234.379     .281    2.104   91.959     .016     .144  154.036  216.70 2.47E-04
  5   14.000   15.000   88.041   27.591  261.969     .247    2.351   92.195     .012     .156  131.589  216.70 2.11E-04
  6   15.000   16.000   87.805   24.895  286.865     .223    2.574   92.409     .009     .165  112.431  216.70 1.80E-04
  7   16.000   17.000   87.591   22.852  309.716     .205    2.779   92.607     .007     .172   96.094  216.70 1.54E-04
  8   17.000   18.000   87.393   21.234  330.951     .190    2.969   92.792     .006     .177   82.144  216.70 1.32E-04
  9   18.000   19.000   87.208   19.913  350.864     .178    3.147   92.966     .004     .182   70.212  216.70 1.13E-04
 10   19.000   20.000   87.034   18.808  369.671     .168    3.316   93.130     .004     .186   60.019  216.70 9.63E-05
 11   20.000   21.000   86.870   17.866  387.537     .160    3.476   93.287     .003     .189   51.323  217.13 8.22E-05
 12   21.000   22.000   86.713   17.051  404.588     .153    3.628   93.437     .002     .191   43.906  218.08 7.00E-05
 13   22.000   23.000   86.563   16.337  420.925     .146    3.774   93.581     .002     .193   37.590  219.08 5.97E-05
 14   23.000   24.000   86.419   15.704  436.629     .140    3.915   93.720     .002     .195   32.211  220.08 5.09E-05
 15   24.000   25.000   86.280   15.140  451.769     .135    4.050   93.854     .001     .196   27.618  221.08 4.34E-05
 16   25.000   30.000   86.146   68.926  520.695     .616    4.666   94.466     .004     .200   18.917  223.67 2.81E-05
0        DOUBLE RANGE, BETA, BENDING
         FOR SYMMETRIC PART OF PATH     1041.390             9.331                       .399





 CUMULATIVE ABSORBER AMOUNTS FOR THE PATH FROM H1 TO Z

  J     Z        TBAR     HNO3        O3 UV      CNTMSLF1   CNTMSLF2    CNTMFRN      O2
       (KM)       (K)   (ATM CM)    (ATM CM)    (MOL CM-2)  (MOL CM-2)  (MOL CM-2)(MOL CM-2)

  1   25.000   223.67   7.130E-04   8.538E-01   2.045E+12   2.045E+12   4.514E+17   3.194E+04
  2   24.000   221.08   1.004E-03   1.101E+00   2.991E+12   2.991E+12   6.687E+17   4.286E+04
  3   23.000   220.08   1.362E-03   1.372E+00   4.271E+12   4.271E+12   9.701E+17   5.620E+04
  4   22.000   219.08   1.784E-03   1.665E+00   5.999E+12   5.999E+12   1.389E+18   7.256E+04
  5   21.000   218.08   2.263E-03   1.972E+00   8.350E+12   8.350E+12   1.975E+18   9.272E+04
  6   20.000   217.13   2.780E-03   2.288E+00   1.161E+13   1.161E+13   2.804E+18   1.177E+05
  7   19.000   216.70   3.291E-03   2.608E+00   1.617E+13   1.617E+13   3.983E+18   1.488E+05
  8   18.000   216.70   3.742E-03   2.919E+00   2.266E+13   2.266E+13   5.675E+18   1.877E+05
  9   17.000   216.70   4.105E-03   3.216E+00   3.214E+13   3.214E+13   8.146E+18   2.367E+05
 10   16.000   216.70   4.378E-03   3.493E+00   4.657E+13   4.657E+13   1.185E+19   2.993E+05
 11   15.000   216.70   4.580E-03   3.754E+00   7.518E+13   7.518E+13   1.819E+19   3.804E+05
 12   14.000   216.70   4.755E-03   4.011E+00   1.398E+14   1.398E+14   2.996E+19   4.873E+05
 13   13.000   216.70   4.936E-03   4.274E+00   3.784E+14   3.784E+14   5.782E+19   6.326E+05
 14   12.000   216.70   5.151E-03   4.561E+00   1.622E+15   1.622E+15   1.392E+20   8.395E+05
 15   11.000   216.75   5.431E-03   4.888E+00   9.302E+15   9.302E+15   4.088E+20   1.164E+06
 16   10.003   221.18   6.088E-03   5.452E+00   1.202E+17   1.202E+17   2.268E+21   2.107E+06
 17   11.000   221.18   6.745E-03   6.017E+00   2.310E+17   2.310E+17   4.127E+21   3.049E+06
 18   12.000   216.75   7.025E-03   6.344E+00   2.387E+17   2.387E+17   4.396E+21   3.374E+06
 19   13.000   216.70   7.240E-03   6.631E+00   2.399E+17   2.399E+17   4.478E+21   3.581E+06
 20   14.000   216.70   7.421E-03   6.894E+00   2.402E+17   2.402E+17   4.506E+21   3.726E+06
 21   15.000   216.70   7.596E-03   7.151E+00   2.402E+17   2.402E+17   4.517E+21   3.833E+06
 22   16.000   216.70   7.798E-03   7.412E+00   2.403E+17   2.403E+17   4.524E+21   3.914E+06
 23   17.000   216.70   8.070E-03   7.689E+00   2.403E+17   2.403E+17   4.527E+21   3.977E+06
 24   18.000   216.70   8.434E-03   7.986E+00   2.403E+17   2.403E+17   4.530E+21   4.026E+06
 25   19.000   216.70   8.885E-03   8.297E+00   2.403E+17   2.403E+17   4.532E+21   4.064E+06
 26   20.000   216.70   9.396E-03   8.617E+00   2.403E+17   2.403E+17   4.533E+21   4.096E+06
 27   21.000   217.13   9.913E-03   8.933E+00   2.403E+17   2.403E+17   4.534E+21   4.121E+06
 28   22.000   218.08   1.039E-02   9.240E+00   2.403E+17   2.403E+17   4.534E+21   4.141E+06
 29   23.000   219.08   1.081E-02   9.533E+00   2.403E+17   2.403E+17   4.535E+21   4.157E+06
 30   24.000   220.08   1.117E-02   9.804E+00   2.403E+17   2.403E+17   4.535E+21   4.170E+06
 31   25.000   221.08   1.146E-02   1.005E+01   2.403E+17   2.403E+17   4.535E+21   4.181E+06
 32   30.000   223.67   1.218E-02   1.090E+01   2.403E+17   2.403E+17   4.536E+21   4.213E+06



  J     Z       N2 CONT    MOL SCAT       AER 1       AER 2       AER 3       AER 4       CIRRUS
       (KM)

  1   25.000   2.418E-02   1.500E+00   0.000E+00   0.000E+00   2.132E-02   0.000E+00   0.000E+00
  2   24.000   3.622E-02   2.008E+00   0.000E+00   0.000E+00   3.658E-02   0.000E+00   0.000E+00
  3   23.000   5.332E-02   2.627E+00   0.000E+00   0.000E+00   6.461E-02   0.000E+00   0.000E+00
  4   22.000   7.772E-02   3.381E+00   0.000E+00   0.000E+00   1.296E-01   0.000E+00   0.000E+00
  5   21.000   1.127E-01   4.304E+00   0.000E+00   0.000E+00   5.114E-01   0.000E+00   0.000E+00
  6   20.000   1.631E-01   5.440E+00   0.000E+00   0.000E+00   1.859E+00   0.000E+00   0.000E+00
  7   19.000   2.359E-01   6.842E+00   0.000E+00   0.000E+00   3.252E+00   0.000E+00   0.000E+00
  8   18.000   3.414E-01   8.577E+00   0.000E+00   0.000E+00   3.963E+00   0.000E+00   0.000E+00
  9   17.000   4.953E-01   1.074E+01   0.000E+00   0.000E+00   4.343E+00   0.000E+00   0.000E+00
 10   16.000   7.220E-01   1.347E+01   0.000E+00   0.000E+00   4.580E+00   0.000E+00   0.000E+00
 11   15.000   1.060E+00   1.694E+01   0.000E+00   0.000E+00   4.746E+00   0.000E+00   0.000E+00
 12   14.000   1.573E+00   2.145E+01   0.000E+00   0.000E+00   4.867E+00   0.000E+00   0.000E+00
 13   13.000   2.373E+00   2.745E+01   0.000E+00   0.000E+00   4.967E+00   0.000E+00   0.000E+00
 14   12.000   3.677E+00   3.580E+01   0.000E+00   0.000E+00   5.065E+00   0.000E+00   0.000E+00
 15   11.000   6.011E+00   4.856E+01   0.000E+00   0.000E+00   5.176E+00   0.000E+00   0.000E+00
 16   10.003   1.378E+01   8.450E+01   0.000E+00   8.868E-02   5.259E+00   0.000E+00   0.000E+00
 17   11.000   2.154E+01   1.204E+02   0.000E+00   1.774E-01   5.342E+00   0.000E+00   0.000E+00
 18   12.000   2.388E+01   1.332E+02   0.000E+00   1.774E-01   5.453E+00   0.000E+00   0.000E+00
 19   13.000   2.518E+01   1.416E+02   0.000E+00   1.774E-01   5.550E+00   0.000E+00   0.000E+00
 20   14.000   2.598E+01   1.476E+02   0.000E+00   1.774E-01   5.651E+00   0.000E+00   0.000E+00
 21   15.000   2.649E+01   1.521E+02   0.000E+00   1.774E-01   5.772E+00   0.000E+00   0.000E+00
 22   16.000   2.683E+01   1.555E+02   0.000E+00   1.774E-01   5.937E+00   0.000E+00   0.000E+00
 23   17.000   2.706E+01   1.583E+02   0.000E+00   1.774E-01   6.175E+00   0.000E+00   0.000E+00
 24   18.000   2.721E+01   1.604E+02   0.000E+00   1.774E-01   6.555E+00   0.000E+00   0.000E+00
 25   19.000   2.732E+01   1.622E+02   0.000E+00   1.774E-01   7.266E+00   0.000E+00   0.000E+00
 26   20.000   2.739E+01   1.636E+02   0.000E+00   1.774E-01   8.658E+00   0.000E+00   0.000E+00
 27   21.000   2.744E+01   1.647E+02   0.000E+00   1.774E-01   1.001E+01   0.000E+00   0.000E+00
 28   22.000   2.747E+01   1.656E+02   0.000E+00   1.774E-01   1.039E+01   0.000E+00   0.000E+00
 29   23.000   2.750E+01   1.664E+02   0.000E+00   1.774E-01   1.045E+01   0.000E+00   0.000E+00
 30   24.000   2.752E+01   1.670E+02   0.000E+00   1.774E-01   1.048E+01   0.000E+00   0.000E+00
 31   25.000   2.753E+01   1.675E+02   0.000E+00   1.774E-01   1.050E+01   0.000E+00   0.000E+00
 32   30.000   2.755E+01   1.690E+02   0.000E+00   1.774E-01   1.052E+01   0.000E+00   0.000E+00



   J    Z       H2O       O3        CO2       CO        CH4       N2O       O2        NH3       NO        NO2       SO2
      (KM)   (G/CM**2)  (                                            ATM CM                                             )

   1   25.00  1.17E-05  2.09E-01  2.17E+00  1.32E-04  7.99E-03  6.44E-03  5.06E+02  4.96E-11  2.01E-05  1.41E-04  9.32E-07
   2   24.00  1.73E-05  2.82E-01  3.10E+00  1.87E-04  1.19E-02  9.33E-03  7.82E+02  8.08E-11  2.40E-05  1.82E-04  1.35E-06
   3   23.00  2.50E-05  3.68E-01  4.34E+00  2.58E-04  1.74E-02  1.33E-02  1.19E+03  1.29E-10  2.76E-05  2.25E-04  1.93E-06
   4   22.00  3.56E-05  4.68E-01  6.00E+00  3.49E-04  2.55E-02  1.86E-02  1.80E+03  2.02E-10  3.16E-05  2.73E-04  2.75E-06
   5   21.00  5.04E-05  5.80E-01  8.23E+00  4.72E-04  3.72E-02  2.60E-02  2.70E+03  3.12E-10  3.62E-05  3.24E-04  3.94E-06
   6   20.00  7.12E-05  7.04E-01  1.13E+01  6.49E-04  5.43E-02  3.64E-02  4.06E+03  4.95E-10  4.19E-05  3.78E-04  5.78E-06
   7   19.00  1.01E-04  8.39E-01  1.54E+01  9.27E-04  7.88E-02  5.11E-02  6.09E+03  8.67E-10  4.89E-05  4.33E-04  8.68E-06
   8   18.00  1.43E-04  9.78E-01  2.10E+01  1.40E-03  1.14E-01  7.15E-02  9.12E+03  1.74E-09  5.82E-05  4.86E-04  1.33E-05
   9   17.00  2.04E-04  1.12E+00  2.89E+01  2.24E-03  1.64E-01  9.99E-02  1.37E+04  3.79E-09  7.09E-05  5.36E-04  2.03E-05
  10   16.00  2.96E-04  1.26E+00  3.99E+01  3.73E-03  2.36E-01  1.39E-01  2.06E+04  9.06E-09  8.93E-05  5.80E-04  3.04E-05
  11   15.00  4.52E-04  1.40E+00  5.54E+01  6.43E-03  3.41E-01  1.94E-01  3.12E+04  2.46E-08  1.16E-04  6.14E-04  4.43E-05
  12   14.00  7.41E-04  1.56E+00  7.79E+01  1.15E-02  4.95E-01  2.71E-01  4.78E+04  7.78E-08  1.56E-04  6.37E-04  6.29E-05
  13   13.00  1.42E-03  1.72E+00  1.11E+02  2.11E-02  7.27E-01  3.81E-01  7.44E+04  2.94E-07  2.15E-04  6.53E-04  8.87E-05
  14   12.00  3.41E-03  1.91E+00  1.62E+02  3.99E-02  1.09E+00  5.47E-01  1.19E+05  1.08E-06  3.06E-04  6.69E-04  1.26E-04
  15   11.00  9.98E-03  2.14E+00  2.50E+02  7.84E-02  1.72E+00  8.20E-01  2.02E+05  3.62E-06  4.56E-04  6.88E-04  1.87E-04
  16   10.00  5.58E-02  2.56E+00  5.40E+02  2.18E-01  3.77E+00  1.64E+00  4.71E+05  2.01E-05  9.25E-04  7.38E-04  3.72E-04
  17   11.00  1.02E-01  2.99E+00  8.30E+02  3.57E-01  5.82E+00  2.46E+00  7.40E+05  3.66E-05  1.39E-03  7.88E-04  5.57E-04
  18   12.00  1.08E-01  3.22E+00  9.17E+02  3.96E-01  6.45E+00  2.73E+00  8.23E+05  3.91E-05  1.54E-03  8.08E-04  6.18E-04
  19   13.00  1.10E-01  3.41E+00  9.68E+02  4.14E-01  6.82E+00  2.90E+00  8.67E+05  3.99E-05  1.64E-03  8.23E-04  6.55E-04
  20   14.00  1.11E-01  3.57E+00  1.00E+03  4.24E-01  7.05E+00  3.01E+00  8.94E+05  4.01E-05  1.69E-03  8.40E-04  6.81E-04
  21   15.00  1.11E-01  3.72E+00  1.02E+03  4.29E-01  7.20E+00  3.09E+00  9.11E+05  4.02E-05  1.73E-03  8.63E-04  7.00E-04
  22   16.00  1.11E-01  3.87E+00  1.04E+03  4.32E-01  7.31E+00  3.14E+00  9.21E+05  4.02E-05  1.76E-03  8.97E-04  7.14E-04
  23   17.00  1.11E-01  4.01E+00  1.05E+03  4.33E-01  7.38E+00  3.18E+00  9.28E+05  4.02E-05  1.78E-03  9.40E-04  7.24E-04
  24   18.00  1.11E-01  4.15E+00  1.06E+03  4.34E-01  7.43E+00  3.21E+00  9.33E+05  4.02E-05  1.79E-03  9.90E-04  7.31E-04
  25   19.00  1.11E-01  4.29E+00  1.06E+03  4.35E-01  7.47E+00  3.23E+00  9.36E+05  4.02E-05  1.80E-03  1.04E-03  7.35E-04
  26   20.00  1.12E-01  4.42E+00  1.07E+03  4.35E-01  7.49E+00  3.24E+00  9.38E+05  4.02E-05  1.81E-03  1.10E-03  7.38E-04
  27   21.00  1.12E-01  4.55E+00  1.07E+03  4.35E-01  7.51E+00  3.25E+00  9.39E+05  4.02E-05  1.81E-03  1.15E-03  7.40E-04
  28   22.00  1.12E-01  4.66E+00  1.07E+03  4.35E-01  7.52E+00  3.26E+00  9.40E+05  4.02E-05  1.82E-03  1.20E-03  7.41E-04
  29   23.00  1.12E-01  4.76E+00  1.08E+03  4.35E-01  7.53E+00  3.27E+00  9.41E+05  4.02E-05  1.82E-03  1.25E-03  7.42E-04
  30   24.00  1.12E-01  4.85E+00  1.08E+03  4.35E-01  7.53E+00  3.27E+00  9.41E+05  4.02E-05  1.83E-03  1.29E-03  7.43E-04
  31   25.00  1.12E-01  4.92E+00  1.08E+03  4.35E-01  7.54E+00  3.27E+00  9.41E+05  4.02E-05  1.83E-03  1.34E-03  7.43E-04
  32   30.00  1.12E-01  5.13E+00  1.08E+03  4.36E-01  7.54E+00  3.28E+00  9.42E+05  4.02E-05  1.85E-03  1.48E-03  7.44E-04


0SUMMARY OF THE GEOMETRY CALCULATION

          H1      =     30.000 KM
          H2      =     30.000 KM
          ANGLE   =     94.466 DEG
          RANGE   =   1041.390 KM
          BETA    =      9.331 DEG
          PHI     =     94.466 DEG
          HMIN    =     10.003 KM
          BENDING =       .399 DEG
          LEN     =          1




 EQUIVALENT SEA LEVEL TOTAL ABSORBER AMOUNTS

                 HNO3      O3 UV       CNTMSLF1    CNTMSLF2   CNTMFRN
               (ATM CM)   (ATM CM)     (MOL CM-2)  (MOL CM-2)  (MOL CM-2)  (MOL CM-2)

             1.218E-02   1.090E+01   2.403E+17   2.403E+17   4.536E+21


              N2 CONT    MOL SCAT       AER 1       AER 2       AER 3       AER 4     CIRRUS      MEAN RH
                                                                                                  (PRCNT)

             2.755E+01   1.690E+02   0.000E+00   1.774E-01   1.052E+01   0.000E+00   0.000E+00         .00


                 H2O        O3          CO2         CO          CH4         N2O          O2
              (G/CM**2)     (                           ATM CM                            )

             1.116E-01   5.128E+00   1.079E+03   4.355E-01   7.545E+00   3.279E+00   9.418E+05

                 NH3        NO          NO2         SO2
                 (               ATM CM               )

             4.022E-05   1.850E-03   1.476E-03   7.442E-04
1
   FREQ WAVELENGTH  TOTAL     H2O     CO2+     OZONE    TRACE  N2 CONT  H2O CONT MOL SCAT  AER-HYD  HNO3    AER-HYD  INTEGRATED

   1/CM  MICRONS    TRANS    TRANS    TRANS    TRANS    TRANS   TRANS    TRANS    TRANS     TRANS   TRANS    ABS     ABSORPTION

    990.  10.101    .0043    .9958    .9584    .3482    .9995   1.0000    .9988   1.0000    .0130   1.0000    .8832       2.489
    995.  10.050    .0023    .9959    .9752    .1933    .9994   1.0000    .9988   1.0000    .0124   1.0000    .8856       7.478
   1000.  10.000    .0009    .9946    .9854    .0775    .9993   1.0000    .9988   1.0000    .0118   1.0000    .8880      12.473
   1005.   9.950    .0002    .9932    .9899    .0199    .9992   1.0000    .9988   1.0000    .0116   1.0000    .8870      17.472
   1010.   9.901    .0000    .9924    .9898    .0032    .9992   1.0000    .9988   1.0000    .0114   1.0000    .8860      22.472
   1015.   9.852    .0000    .9916    .9860    .0004    .9991   1.0000    .9988   1.0000    .0113   1.0000    .8849      27.472
   1020.   9.804    .0000    .9917    .9790    .0000    .9991   1.0000    .9988   1.0000    .0111   1.0000    .8839      32.472
   1025.   9.756    .0000    .9918    .9688    .0000    .9990   1.0000    .9988   1.0000    .0109   1.0000    .8829      37.472
   1030.   9.709    .0000    .9918    .9555    .0000    .9989   1.0000    .9987   1.0000    .0108   1.0000    .8819      42.472
   1035.   9.662    .0000    .9926    .9394    .0000    .9988   1.0000    .9987   1.0000    .0106   1.0000    .8809      47.472
   1040.   9.615    .0000    .9927    .9219    .0000    .9988   1.0000    .9987   1.0000    .0105   1.0000    .8798      52.472
   1045.   9.569    .0000    .9926    .9066    .0000    .9987   1.0000    .9987   1.0000    .0104   1.0000    .8788      57.472
   1050.   9.524    .0000    .9916    .8971    .0000    .9988   1.0000    .9987   1.0000    .0102   1.0000    .8778      62.472
   1055.   9.479    .0000    .9906    .8924    .0000    .9988   1.0000    .9987   1.0000    .0101   1.0000    .8768      67.472
   1060.   9.434    .0000    .9894    .8899    .0002    .9988   1.0000    .9987   1.0000    .0100   1.0000    .8758      72.472
   1065.   9.390    .0001    .9889    .8848    .0128    .9987   1.0000    .9987   1.0000    .0098   1.0000    .8748      77.471
   1070.   9.346    .0012    .9898    .8744    .1481    .9987   1.0000    .9986   1.0000    .0097   1.0000    .8738      82.465
   1075.   9.302    .0029    .9901    .8671    .3503    .9986   1.0000    .9986   1.0000    .0096   1.0000    .8727      87.451
   1080.   9.259    .0040    .9914    .8714    .4865    .9985   1.0000    .9986   1.0000    .0095   1.0000    .8717      92.431
   1085.   9.217    .0046    .9911    .8917    .5598    .9985   1.0000    .9986   1.0000    .0093   1.0000    .8707      97.408
   1090.   9.174    .0050    .9897    .9228    .5921    .9985   1.0000    .9985   1.0000    .0093   1.0000    .8688      99.895
0INTEGRATED ABSORPTION FROM  990 TO 1090 CM-1 =     99.90 CM-1
 AVERAGE TRANSMITTANCE = .0010

0 CARD 5 *****    1
